# Wilkinson Microwave Anisotropy Probe (WMAP) 9-year data release.
# WMAP 9-Year Combined Power Spectrum, version 5.0 (December 2012)
#
# References: - WMAP Explanatory Supplement: http://lambda.gsfc.nasa.gov/
#             - Bennett, et al. (2012)
#             - Hinshaw, et al. (2012)
#
# Column 1 = multipole moment l
# Column 2 = TT power spectrum, units = uK^2, = l(l+1)/2pi * C_l.
#             This uses the maximum likelihood of the marginalized distribution 
#             at that l, for l up to and including 32.  
#             For l > 32, the C^-1 estimate is used.
# Column 3 = 'Error' derived from diagonal terms of Fisher matrix, units = uK^2.
#             Included only as an estimate of their magnitude.  The
#             multipole moments are slightly coupled, so a correct
#             treatment of errors requires use of the entire Fisher matrix.
# Column 4 = portion of column3 error attributed to measurement errors,
#             in "2SN + NN" form, units = uK^2.
# Column 5 = portion of column3 error attributed to cosmic variance, 
#             assuming the best-fit LCDM model
           2       150.6398       708.3154         8.6102       708.2630
           3       902.1805       565.3141         9.6361       565.2320
           4       730.3626       471.9324        10.1917       471.8224
           5      1467.8517       409.7481        10.5276       409.6128
           6       688.5324       366.8310        10.7223       366.6742
           7      1272.9914       336.2774        10.8606       336.1020
           8       603.8108       313.7279        10.9598       313.5364
           9       605.5998       296.6357        11.0565       296.4296
          10       918.1212       283.4338        11.1531       283.2143
          11       972.2889       272.9552        11.2646       272.7227
          12       716.7145       264.7720        11.3819       264.5272
          13       878.0790       258.0293        11.5144       257.7723
          14       828.4221       252.4174        11.6377       252.1489
          15      1112.5057       247.5395        11.7773       247.2592
          16       730.5889       243.9536        11.9281       243.6618
          17      1014.1750       240.7406        12.0724       240.4377
          18       729.9205       238.1254        12.2154       237.8119
          19       868.0217       236.2484        12.3880       235.9234
          20       731.7402       234.4936        12.5521       234.1574
          21       648.8223       233.0897        12.7283       232.7419
          22       625.0736       231.9384        12.9061       231.5790
          23       755.7853       230.9548        13.0891       230.5836
          24       844.8535       230.1961        13.2780       229.8128
          25       749.2468       229.6717        13.4741       229.2761
          26       885.9176       229.2413        13.6741       228.8332
          27       942.7882       229.0104        13.8812       228.5893
          28      1209.2431       228.9189        14.0934       228.4847
          29      1160.6891       228.9186        14.3090       228.4710
          30       938.1419       229.0862        14.5306       228.6249
          31      1095.8896       229.2682        14.7523       228.7931
          32      1516.8735       229.6210        14.9794       229.1319
          33      1020.2872       230.0375        15.2106       229.5340
          34      1015.4604       230.5063        15.4414       229.9885
          35       897.4112       231.1157        15.6756       230.5835
          36      1025.1892       231.6972        15.9108       231.1503
          37      1386.7990       232.3702        16.1479       231.8084
          38      1349.7274       233.1170        16.3880       232.5403
          39      1420.2065       233.9524        16.6323       233.3604
          40      1909.9515       234.8198        16.8789       234.2124
          41      1206.7104       235.7200        17.1282       235.0969
          42      1455.2822       236.6470        17.3801       236.0079
          43      1327.3545       237.6070        17.6350       236.9517
          44      1292.2217       238.5927        17.8924       237.9209
          45      1117.7233       239.6376        18.1537       238.9489
          46      1035.5095       240.7224        18.4179       240.0167
          47      1644.5292       241.8502        18.6852       241.1273
          48       914.3522       243.0000        18.9555       242.2596
          49      1555.2567       244.1906        19.2282       243.4323
          50      1575.1228       245.4142        19.5014       244.6382
          51      1176.8585       246.6745        19.7747       245.8806
          52      1557.1862       247.9800        20.0520       247.1680
          53      1134.3741       249.2997        20.3296       248.4694
          54      1252.4326       250.6408        20.6107       249.7919
          55      1467.5354       251.9857        20.8920       251.1182
          56      1676.0629       253.3672        21.1758       252.4807
          57      1598.8917       254.7958        21.4618       253.8903
          58      1789.8887       256.2588        21.7508       255.3340
          59      1366.9397       257.7557        22.0438       256.8113
          60      1905.9812       259.2625        22.3379       258.2984
          61      1590.6790       260.8036        22.6373       259.8193
          62      2168.9714       262.3593        22.9382       261.3546
          63      1791.4490       263.9342        23.2429       262.9088
          64      1548.8033       265.5331        23.5497       264.4867
          65      1589.7109       267.1603        23.8587       266.0928
          66      1616.4797       268.8287        24.1706       267.7399
          67      1633.3380       270.5178        24.4844       269.4075
          68      1977.6631       272.2272        24.8023       271.0950
          69      2382.4131       273.9565        25.1232       272.8021
          70      1603.8628       275.6945        25.4464       274.5176
          71      1718.3727       277.4345        25.7716       276.2349
          72      1447.3859       279.2090        26.0991       277.9865
          73      2796.8291       281.0110        26.4288       279.7655
          74      2172.0691       282.8552        26.7621       281.5863
          75      2078.3823       284.7450        27.0981       283.4527
          76      1727.9230       286.6585        27.4360       285.3426
          77      1778.1305       288.5882        27.7762       287.2484
          78      1656.0239       290.5327        28.1176       289.1689
          79      1799.3439       292.4905        28.4602       291.1026
          80      2190.4910       294.4603        28.8060       293.0479
          81      2086.7888       296.4638        29.1541       295.0268
          82      2896.8918       298.4805        29.5037       297.0187
          83      2040.7607       300.5233        29.8572       299.0365
          84      1890.1868       302.5847        30.2126       301.0726
          85      2268.7698       304.6575        30.5703       303.1198
          86      2621.1748       306.7537        30.9301       305.1904
          87      2440.8008       308.8641        31.2925       307.2748
          88      1905.3622       310.9791        31.6571       309.3636
          89      2604.0527       313.1088        32.0233       311.4669
          90      2099.4607       315.2534        32.3932       313.5847
          91      2450.8091       317.4035        32.7643       315.7079
          92      2505.2031       319.5783        33.1377       317.8556
          93      2816.8608       321.7585        33.5141       320.0083
          94      2443.0762       323.9535        33.8924       322.1757
          95      2211.8906       326.1632        34.2732       324.3575
          96      2358.4727       328.3782        34.6553       326.5444
          97      2614.5454       330.6171        35.0413       328.7548
          98      1966.0112       332.8703        35.4290       330.9795
          99      2966.4709       335.1287        35.8188       333.2090
         100      2924.8508       337.4105        36.2123       335.4616
         101      2543.8469       339.6972        36.6056       337.7192
         102      2720.2131       341.9981        37.0021       339.9905
         103      2599.6890       344.3129        37.4009       342.2756
         104      3221.4587       346.6327        37.8016       344.5653
         105      2242.4265       348.9662        38.2046       346.8686
         106      2954.0625       351.3047        38.6093       349.1766
         107      3336.0925       353.6479        39.0167       351.4890
         108      3998.8875       356.0050        39.4263       353.8151
         109      2762.9573       358.3669        39.8375       356.1457
         110      3384.9514       360.7337        40.2505       358.4811
         111      3051.7939       363.0967        40.6654       360.8123
         112      2887.9824       365.4645        41.0828       363.1481
         113      2480.0417       367.8459        41.5021       365.4972
         114      2409.7405       370.2148        41.9228       367.8335
         115      3268.6541       372.5969        42.3462       370.1828
         116      3811.4221       374.9666        42.7700       372.5194
         117      4525.1748       377.3410        43.1967       374.8603
         118      3814.0127       379.7200        43.6247       377.2057
         119      3508.1113       382.0867        44.0536       379.5385
         120      2729.0261       384.4579        44.4853       381.8756
         121      4321.1660       386.8170        44.9179       384.2002
         122      3412.7195       389.1724        45.3517       386.5208
         123      3790.3740       391.5241        45.7868       388.8376
         124      2924.6956       393.8722        46.2238       391.1504
         125      3185.2681       396.2084        46.6613       393.4512
         126      3580.9934       398.5412        47.1003       395.7482
         127      3666.7271       400.8623        47.5397       398.0333
         128      3606.9521       403.1718        47.9802       400.3066
         129      3165.2322       405.4699        48.4218       402.5682
         130      4150.1636       407.7567        48.8643       404.8182
         131      3447.0515       410.0322        49.3079       407.0567
         132      3083.1873       412.2967        49.7522       409.2839
         133      3817.7319       414.5425        50.1970       411.4921
         134      3468.9634       416.7779        50.6424       413.6897
         135      4201.2715       419.0030        51.0894       415.8766
         136      4890.7632       421.2022        51.5367       418.0374
         137      3775.5205       423.3840        51.9835       420.1806
         138      4164.5327       425.5563        52.4322       422.3139
         139      4347.6631       427.6960        52.8800       424.4144
         140      3914.2166       429.8269        53.3288       426.5058
         141      4192.7090       431.9337        53.7778       428.5728
         142      4363.0615       434.0166        54.2276       430.6156
         143      4419.2988       436.0839        54.6771       432.6426
         144      3604.4880       438.1205        55.1259       434.6386
         145      5339.9785       440.1342        55.5754       436.6114
         146      4163.4360       442.1257        56.0245       438.5617
         147      4199.7925       444.0874        56.4729       440.4821
         148      3903.4314       446.0199        56.9218       442.3728
         149      3633.2964       447.9312        57.3695       444.2422
         150      4808.1904       449.8140        57.8176       446.0826
         151      3958.1355       451.6685        58.2652       447.8947
         152      4484.4058       453.4878        58.7110       449.6712
         153      5174.7725       455.2868        59.1568       451.4273
         154      4169.3042       457.0585        59.6028       453.1556
         155      4952.2485       458.8029        60.0481       454.8564
         156      4203.0552       460.5129        60.4923       456.5226
         157      4471.1460       462.2036        60.9369       458.1690
         158      5765.2358       463.8676        61.3807       459.7886
         159      4885.1802       465.5053        61.8244       461.3816
         160      4938.2744       467.1168        62.2671       462.9481
         161      4377.1118       468.6950        62.7098       464.4809
         162      4052.7625       470.2475        63.1515       465.9878
         163      4709.3882       471.7744        63.5928       467.4688
         164      5139.1499       473.2616        64.0335       468.9096
         165      4648.7793       474.7236        64.4729       470.3251
         166      4948.3403       476.1463        64.9115       471.7010
         167      5066.4209       477.5444        65.3502       473.0518
         168      5243.1558       478.8966        65.7867       474.3565
         169      4946.0791       480.2246        66.2225       475.6367
         170      4467.5044       481.5073        66.6567       476.8713
         171      5054.9238       482.7592        67.0903       478.0746
         172      4901.3516       483.9664        67.5222       479.2329
         173      5129.0752       485.1362        67.9528       480.3536
         174      5053.8418       486.2690        68.3820       481.4369
         175      4927.3008       487.3650        68.8098       482.4830
         176      5310.4492       488.4105        69.2359       483.4783
         177      4889.2148       489.4199        69.6605       484.4371
         178      4804.4229       490.3866        70.0829       485.3528
         179      6070.4478       491.3040        70.5035       486.2190
         180      5318.7593       492.1864        70.9223       487.0498
         181      4258.4141       493.0203        71.3390       487.8317
         182      4406.9990       493.8130        71.7541       488.5720
         183      4665.1104       494.5580        72.1670       489.2643
         184      5555.3799       495.2625        72.5775       489.9158
         185      5570.0400       495.9270        72.9861       490.5268
         186      5615.7773       496.5381        73.3920       491.0842
         187      5001.3354       497.1098        73.7966       491.6017
         188      6005.6304       497.6425        74.1984       492.0799
         189      6189.0991       498.1230        74.5972       492.5057
         190      6164.7241       498.5652        74.9947       492.8926
         191      5392.3564       498.9560        75.3888       493.2277
         192      5697.6543       499.3092        75.7808       493.5250
         193      6105.7490       499.6117        76.1702       493.7711
         194      5102.0293       499.8772        76.5571       493.9800
         195      4545.5459       500.0928        76.9414       494.1385
         196      5287.7051       500.2655        77.3226       494.2538
         197      5737.7993       500.3955        77.7014       494.3260
         198      6151.8813       500.4833        78.0778       494.3555
         199      5147.4673       500.5292        78.4510       494.3429
         200      5496.0459       500.5269        78.8211       494.2817
         201      5281.0322       500.4833        79.1893       494.1787
         202      5979.9434       500.3922        79.5536       494.0279
         203      6082.6826       500.2539        79.9146       493.8295
         204      6271.7988       500.0688        80.2724       493.5840
         205      5776.6455       499.8371        80.6269       493.2915
         206      5170.5469       499.5593        80.9788       492.9522
         207      5194.6138       499.2355        81.3265       492.5668
         208      5098.0552       498.8596        81.6704       492.1289
         209      4825.1479       498.4321        82.0109       491.6389
         210      6167.0425       497.9660        82.3478       491.1100
         211      5698.5942       497.4489        82.6813       490.5295
         212      5665.0674       496.8874        83.0113       489.9043
         213      5905.9917       496.2817        83.3376       489.2344
         214      5310.0068       495.6259        83.6598       488.5141
         215      6641.1401       494.9266        83.9783       487.7499
         216      5680.7964       494.1839        84.2937       486.9418
         217      5504.0088       493.3984        84.6055       486.0904
         218      6046.3525       492.5638        84.9129       485.1895
         219      5328.9072       491.6867        85.2164       484.2458
         220      6371.5835       490.7612        85.5163       483.2531
         221      5928.8853       489.7938        85.8123       482.2180
         222      6154.8589       488.7785        86.1037       481.1346
         223      5915.8833       487.7155        86.3914       480.0031
         224      5747.5571       486.6114        86.6750       478.8299
         225      5361.2681       485.4602        86.9540       477.6092
         226      5898.5264       484.2683        87.2297       476.3473
         227      6048.2891       483.0298        87.5007       475.0383
         228      4800.3794       481.7511        87.7675       473.6887
         229      5121.4668       480.4325        88.0310       472.2985
         230      5443.4077       479.0679        88.2896       470.8620
         231      5704.3267       477.6578        88.5435       469.3794
         232      6537.8765       476.2145        88.7943       467.8630
         233      6200.2437       474.7260        89.0397       466.3011
         234      5089.4365       473.1926        89.2808       464.6936
         235      6105.6758       471.6265        89.5184       463.0530
         236      6194.4033       470.0160        89.7508       461.3673
         237      5097.9868       468.3732        89.9797       459.6489
         238      5786.3975       466.6864        90.2034       457.8859
         239      5423.4517       464.9617        90.4222       456.0847
         240      6364.6494       463.1993        90.6371       454.2450
         241      5834.6987       461.4054        90.8476       452.3733
         242      5376.7695       459.5681        91.0536       450.4576
         243      5635.2227       457.6997        91.2552       448.5103
         244      5116.2329       455.7942        91.4521       446.5254
         245      6446.2573       453.8519        91.6438       444.5031
         246      5499.9365       451.8790        91.8315       442.4495
         247      5980.4961       449.8694        92.0146       440.3587
         248      5894.1494       447.8294        92.1931       438.2370
         249      4602.6543       445.7591        92.3675       436.0842
         250      5464.8325       443.6587        92.5372       433.9008
         251      5169.2607       441.5223        92.7023       431.6807
         252      6055.6221       439.3560        92.8627       429.4301
         253      4873.3340       437.1658        93.0189       427.1551
         254      4790.7690       434.9403        93.1706       424.8438
         255      5343.2949       432.6853        93.3174       422.5026
         256      6321.0864       430.4011        93.4585       420.1317
         257      5523.2559       428.0936        93.5964       417.7366
         258      5396.1733       425.7571        93.7294       415.3118
         259      4705.9688       423.3919        93.8570       412.8578
